# E (eV)   ldos(E)   pdos(E)    pdos(E)    pdos(E)   
-17.719000 0.000000 0.000000 0.000000 0.000000
-17.709000 0.133000 0.080113 0.026416 0.026421
-17.699000 0.281600 0.159617 0.060860 0.060980
-17.689000 0.164300 0.088421 0.037980 0.038010
-17.679000 0.185600 0.094808 0.045420 0.045400
-17.669000 0.207800 0.101195 0.053420 0.053360
-17.659000 0.231300 0.107279 0.061960 0.061960
-17.649000 0.227400 0.100889 0.063220 0.063160
-17.639000 0.217600 0.092772 0.062250 0.062390
-17.629000 0.226600 0.093275 0.066640 0.066680
-17.619000 0.239800 0.095199 0.072460 0.072380
-17.609000 0.254100 0.097426 0.078300 0.078420
-17.599000 0.268100 0.099350 0.084560 0.084450
-17.589000 0.283000 0.101574 0.090740 0.090690
-17.579000 0.298100 0.103498 0.097220 0.097120
-17.569000 0.284500 0.095893 0.094200 0.094200
-17.559000 0.290300 0.095181 0.097680 0.097480
-17.549000 0.296100 0.094669 0.100720 0.100720
-17.539000 0.301900 0.094154 0.103740 0.103640
-17.529000 0.310600 0.094657 0.108240 0.108140
-17.519000 0.321700 0.095366 0.112940 0.113140
-17.509000 0.332600 0.096575 0.117940 0.118140
-17.499000 0.344000 0.097284 0.123360 0.123260
-17.489000 0.354900 0.098490 0.128380 0.128180
-17.479000 0.366300 0.099499 0.133500 0.133400
-17.469000 0.367000 0.097469 0.134900 0.134900
-17.459000 0.363400 0.094527 0.134400 0.134500
-17.449000 0.367600 0.093812 0.137000 0.136600
-17.439000 0.374700 0.094009 0.140400 0.140300
-17.429000 0.381900 0.094003 0.144100 0.144000
-17.419000 0.389000 0.094000 0.147600 0.147500
-17.409000 0.396400 0.094194 0.150900 0.151000
-17.399000 0.403300 0.094191 0.154400 0.154400
-17.389000 0.412000 0.094691 0.158600 0.158700
-17.379000 0.421000 0.095391 0.162900 0.162800
-17.369000 0.430100 0.095891 0.167100 0.167200
-17.359000 0.439400 0.096591 0.171500 0.171500
-17.349000 0.448700 0.097091 0.176000 0.176000
-17.339000 0.458200 0.097291 0.180500 0.180400
-17.329000 0.451700 0.094852 0.178300 0.178500
-17.319000 0.455600 0.094340 0.180600 0.180600
-17.309000 0.459300 0.093825 0.182700 0.182900
-17.299000 0.462900 0.093313 0.185000 0.185000
-17.289000 0.470300 0.093510 0.188600 0.188500
-17.279000 0.477200 0.093504 0.191900 0.191800
-17.269000 0.484700 0.094001 0.195200 0.195300
-17.259000 0.491800 0.094195 0.198700 0.198800
-17.249000 0.499000 0.094189 0.202300 0.202400
-17.239000 0.506200 0.094683 0.206000 0.205900
-17.229000 0.513300 0.094880 0.209400 0.209400
-17.219000 0.521300 0.095074 0.213300 0.213200
-17.209000 0.529600 0.095571 0.217200 0.217100
-17.199000 0.537600 0.095765 0.221100 0.221000
-17.189000 0.546100 0.096262 0.225100 0.224900
-17.179000 0.550100 0.095750 0.227200 0.227000
-17.169000 0.549700 0.094729 0.227400 0.227600
-17.159000 0.554500 0.094517 0.230000 0.230000
-17.149000 0.560600 0.094708 0.233100 0.233000
-17.139000 0.566400 0.094699 0.236000 0.236000
-17.129000 0.572300 0.094690 0.238900 0.238800
-17.119000 0.578400 0.094881 0.241700 0.241800
-17.109000 0.585300 0.094872 0.245400 0.245200
-17.099000 0.593400 0.095566 0.249100 0.249000
-17.089000 0.601700 0.095760 0.252900 0.252900
-17.079000 0.610000 0.096254 0.256800 0.256800
-17.069000 0.618100 0.096448 0.260900 0.260800
-17.059000 0.626400 0.096939 0.264600 0.264500
-17.049000 0.634500 0.097130 0.268500 0.268700
-17.039000 0.643100 0.097624 0.272800 0.272600
-17.029000 0.651400 0.098015 0.276500 0.276500
-17.019000 0.660900 0.098509 0.281300 0.281300
-17.009000 0.670600 0.099200 0.285800 0.285800
-16.999000 0.675200 0.098885 0.288100 0.288200
-16.989000 0.682700 0.099173 0.291700 0.291900
-16.979000 0.690300 0.099364 0.295300 0.295200
-16.969000 0.698400 0.099552 0.299400 0.299200
-16.959000 0.709500 0.100743 0.304500 0.304500
-16.949000 0.720900 0.101437 0.309700 0.309600
-16.939000 0.732100 0.102128 0.315000 0.314900
-16.929000 0.743500 0.102819 0.320400 0.320300
-16.919000 0.756100 0.103507 0.325500 0.325700
-16.909000 0.769000 0.104901 0.332700 0.332800
-16.899000 0.789800 0.106595 0.341000 0.340800
-16.889000 0.804800 0.107986 0.349000 0.348900
-16.879000 0.825600 0.109880 0.357300 0.357400
-16.869000 0.843400 0.111268 0.365800 0.365600
-16.859000 0.861400 0.112659 0.374200 0.374200
-16.849000 0.879200 0.114547 0.382700 0.382800
-16.839000 0.900000 0.115932 0.391400 0.391300
-16.829000 0.932600 0.119529 0.407100 0.407100
-16.819000 0.968400 0.123320 0.422900 0.423000
-16.809000 1.007000 0.126611 0.439100 0.439000
-16.799000 1.039400 0.130199 0.454800 0.454800
-16.789000 1.089000 0.135396 0.476600 0.476600
-16.779000 1.139000 0.140587 0.499600 0.499700
-16.769000 1.249000 0.153011 0.547900 0.547900
-16.759000 1.371000 0.166623 0.602100 0.602000
-16.749000 2.338000 0.281666 1.027100 1.029200
-16.739000 1.134000 0.136603 0.499400 0.499400
-16.729000 1.064600 0.126955 0.468400 0.468400
-16.719000 0.994400 0.117810 0.437000 0.437100
-16.709000 0.918200 0.108668 0.405600 0.405500
-16.699000 0.845000 0.099329 0.373500 0.373500
-16.689000 0.771800 0.090190 0.341200 0.341300
-16.679000 0.698100 0.081057 0.308500 0.308600
-16.669000 0.711700 0.081948 0.314800 0.314700
-16.659000 0.730200 0.083645 0.323400 0.323300
-16.649000 0.750000 0.085045 0.332000 0.331900
-16.639000 0.768200 0.086951 0.340400 0.340400
-16.629000 0.787000 0.088360 0.348800 0.348900
-16.619000 0.524000 0.058574 0.232700 0.232800
-16.609000 0.542600 0.060358 0.241200 0.241000
-16.599000 0.544500 0.060266 0.242100 0.242000
-16.589000 0.522500 0.057532 0.232500 0.232600
-16.579000 0.500600 0.054768 0.223000 0.222900
-16.569000 0.478600 0.052034 0.213400 0.213500
-16.559000 0.456700 0.049301 0.203700 0.203600
-16.549000 0.434200 0.046598 0.193600 0.193500
-16.539000 0.411500 0.044096 0.183800 0.183800
-16.529000 0.389000 0.041393 0.173800 0.173800
-16.519000 0.366200 0.038691 0.163700 0.163700
-16.509000 0.343200 0.036120 0.153600 0.153400
-16.499000 0.320200 0.033509 0.143300 0.143400
-16.489000 0.297200 0.030918 0.133100 0.133100
-16.479000 0.277200 0.028708 0.124380 0.124180
-16.469000 0.279900 0.028796 0.125580 0.125580
-16.459000 0.282400 0.028884 0.126680 0.126780
-16.449000 0.284800 0.028974 0.127720 0.127920
-16.439000 0.287000 0.029064 0.129000 0.129200
-16.429000 0.289100 0.029135 0.130000 0.130300
-16.419000 0.291800 0.029226 0.131200 0.131500
-16.409000 0.294100 0.029299 0.132400 0.132300
-16.399000 0.000000 0.000000 0.000000 0.000000
-16.389000 0.000000 0.000000 0.000000 0.000000
-16.379000 0.000000 0.000000 0.000000 0.000000
-16.369000 0.000000 0.000000 0.000000 0.000000
-16.359000 0.000000 0.000000 0.000000 0.000000
-16.349000 0.000000 0.000000 0.000000 0.000000
-16.339000 0.000000 0.000000 0.000000 0.000000
-16.329000 0.000000 0.000000 0.000000 0.000000
-16.319000 0.000000 0.000000 0.000000 0.000000
-16.309000 0.000000 0.000000 0.000000 0.000000
-16.299000 0.000000 0.000000 0.000000 0.000000
-16.289000 0.000000 0.000000 0.000000 0.000000
-16.279000 0.000000 0.000000 0.000000 0.000000
-16.269000 0.000000 0.000000 0.000000 0.000000
-16.259000 0.000000 0.000000 0.000000 0.000000
-16.249000 0.000000 0.000000 0.000000 0.000000
-16.239000 0.000000 0.000000 0.000000 0.000000
-16.229000 0.000000 0.000000 0.000000 0.000000
-16.219000 0.000000 0.000000 0.000000 0.000000
-16.209000 0.000000 0.000000 0.000000 0.000000
-16.199000 0.000000 0.000000 0.000000 0.000000
-16.189000 0.000000 0.000000 0.000000 0.000000
-16.179000 0.000000 0.000000 0.000000 0.000000
-16.169000 0.000000 0.000000 0.000000 0.000000
-16.159000 0.000000 0.000000 0.000000 0.000000
-16.149000 0.345700 0.030239 0.157600 0.157600
-16.139000 0.337000 0.029397 0.153800 0.153800
-16.129000 0.328800 0.028533 0.150100 0.149900
-16.119000 0.320200 0.027687 0.146200 0.146300
-16.109000 0.311600 0.026858 0.142500 0.142800
-16.099000 0.303600 0.026028 0.138800 0.138900
-16.089000 0.295400 0.025195 0.135100 0.135200
-16.079000 0.291000 0.024713 0.133200 0.133300
-16.069000 0.323700 0.027383 0.148300 0.148200
-16.059000 0.356800 0.030014 0.163400 0.163300
-16.049000 0.389700 0.032637 0.178300 0.178600
-16.039000 0.422500 0.035222 0.193600 0.193700
-16.029000 0.455500 0.037767 0.208700 0.208900
-16.019000 0.488800 0.040395 0.224300 0.224200
-16.009000 0.522000 0.043023 0.239400 0.239400
-15.999000 0.555100 0.045426 0.254700 0.254800
-15.989000 0.588500 0.048026 0.270100 0.270300
-15.979000 0.621600 0.050432 0.285800 0.285700
-15.969000 0.655200 0.053005 0.301200 0.301000
-15.959000 0.688700 0.055384 0.316600 0.316700
-15.949000 2.079000 0.167205 0.957000 0.955400
-15.939000 1.017000 0.081689 0.468500 0.468600
-15.929000 0.809900 0.064507 0.372400 0.372500
-15.919000 0.937000 0.074508 0.430800 0.430900
-15.909000 1.063000 0.084018 0.489300 0.489300
-15.899000 1.495000 0.117949 0.687300 0.687600
-15.889000 2.066000 0.162620 0.951300 0.950400
-15.879000 2.642000 0.207410 1.216500 1.219000
-15.869000 1.377000 0.107400 0.636300 0.635600
-15.859000 1.325000 0.102686 0.610600 0.610600
-15.849000 1.267000 0.097775 0.585300 0.585500
-15.839000 1.212000 0.093070 0.559700 0.560200
-15.829000 1.157000 0.088465 0.534100 0.534400
-15.819000 1.099000 0.083566 0.508400 0.508400
-15.809000 1.046000 0.078873 0.482400 0.482700
-15.799000 1.004000 0.075704 0.465200 0.465300
-15.789000 0.975000 0.073047 0.451000 0.451100
-15.779000 0.944000 0.070290 0.436900 0.437000
-15.769000 0.920000 0.068348 0.427100 0.426900
-15.759000 0.904000 0.066918 0.418700 0.418700
-15.749000 0.883000 0.065185 0.410100 0.410200
-15.739000 0.867000 0.063518 0.401800 0.401900
-15.729000 0.849000 0.061678 0.392800 0.392800
-15.719000 0.826700 0.059978 0.382900 0.383000
-15.709000 0.803500 0.058051 0.372900 0.372900
-15.699000 0.781500 0.056187 0.363500 0.363400
-15.689000 0.772700 0.055343 0.359500 0.359500
-15.679000 0.763800 0.054472 0.355300 0.355300
-15.669000 0.756100 0.053601 0.351000 0.351100
-15.659000 0.746700 0.052733 0.347100 0.347100
-15.649000 0.737500 0.051892 0.342700 0.342900
-15.639000 0.732000 0.051147 0.340400 0.340600
-15.629000 0.726300 0.050635 0.337800 0.337900
-15.619000 0.720800 0.049920 0.335400 0.335400
-15.609000 0.715000 0.049375 0.332800 0.333000
-15.599000 0.709000 0.048663 0.330300 0.330400
-15.589000 0.703500 0.048151 0.327500 0.327700
-15.579000 0.697700 0.047639 0.325200 0.324900
-15.569000 0.691700 0.046924 0.322400 0.322500
-15.559000 0.685900 0.046412 0.319800 0.319700
-15.549000 0.679800 0.045703 0.317300 0.317100
-15.539000 0.674000 0.045191 0.314500 0.314500
-15.529000 0.668200 0.044479 0.311800 0.311700
-15.519000 0.661600 0.043970 0.308800 0.308900
-15.509000 0.654700 0.043258 0.305800 0.305800
-15.499000 0.647800 0.042716 0.302700 0.302400
-15.489000 0.640900 0.042007 0.299400 0.299600
-15.479000 0.633700 0.041298 0.296200 0.296300
-15.469000 0.627300 0.040789 0.293300 0.293300
-15.459000 0.620400 0.040080 0.290100 0.290200
-15.449000 0.613700 0.039571 0.287200 0.287300
-15.439000 0.589000 0.037776 0.275600 0.275700
-15.429000 0.586600 0.037420 0.274400 0.274600
-15.419000 0.584000 0.037231 0.273600 0.273500
-15.409000 0.581700 0.036855 0.272400 0.272300
-15.399000 0.579100 0.036559 0.271300 0.271300
-15.389000 0.576700 0.036210 0.270000 0.270100
-15.379000 0.573800 0.035914 0.269100 0.269000
-15.369000 0.571200 0.035618 0.267700 0.267700
-15.359000 0.568600 0.035272 0.266900 0.266800
-15.349000 0.566200 0.034976 0.265600 0.265600
-15.339000 0.563600 0.034680 0.264300 0.264400
-15.329000 0.560400 0.034384 0.263200 0.263300
-15.319000 0.557800 0.034068 0.262000 0.262100
-15.309000 0.555200 0.033772 0.260700 0.260500
-15.299000 0.552000 0.033426 0.259200 0.259300
-15.289000 0.548800 0.033110 0.257700 0.257700
-15.279000 0.545600 0.032765 0.256500 0.256400
-15.269000 0.542200 0.032449 0.254900 0.254800
-15.259000 0.539000 0.032134 0.253400 0.253600
-15.249000 0.535800 0.031788 0.252200 0.252100
-15.239000 0.532600 0.031473 0.250600 0.250700
-15.229000 0.529200 0.031158 0.249200 0.249000
-15.219000 0.526000 0.030843 0.247600 0.247600
-15.209000 0.522800 0.030499 0.246100 0.246100
-15.199000 0.519300 0.030204 0.244700 0.244600
-15.189000 0.516100 0.029890 0.243100 0.243100
-15.179000 0.511600 0.029505 0.241000 0.241000
-15.169000 0.504100 0.028979 0.237400 0.237600
-15.159000 0.496900 0.028433 0.234300 0.234200
-15.149000 0.489600 0.027878 0.230700 0.230700
-15.139000 0.482100 0.027353 0.227400 0.227300
-15.129000 0.474600 0.026827 0.223700 0.223600
-15.119000 0.472200 0.026634 0.222900 0.222800
-15.109000 0.470600 0.026410 0.222100 0.222000
-15.099000 0.468800 0.026216 0.221300 0.221400
-15.089000 0.467200 0.026043 0.220400 0.220600
-15.079000 0.465400 0.025819 0.219700 0.219800
-15.069000 0.463500 0.025626 0.218900 0.218900
-15.059000 0.461400 0.025432 0.218100 0.218100
-15.049000 0.459800 0.025229 0.217300 0.217300
-15.039000 0.458200 0.025035 0.216500 0.216500
-15.029000 0.456400 0.024842 0.215800 0.215700
-15.019000 0.454500 0.024639 0.214800 0.214800
-15.009000 0.452400 0.024446 0.214000 0.213900
-14.999000 0.450800 0.024253 0.213200 0.213100
-14.989000 0.449000 0.024080 0.212400 0.212200
-14.979000 0.446800 0.023887 0.211400 0.211400
-14.969000 0.445000 0.023694 0.210700 0.210600
-14.959000 0.443400 0.023491 0.209900 0.209700
-14.949000 0.441000 0.023298 0.208900 0.208900
-14.939000 0.439400 0.023105 0.207900 0.208000
-14.929000 0.437000 0.022912 0.207100 0.207100
-14.919000 0.433500 0.022649 0.205600 0.205500
-14.909000 0.430300 0.022406 0.204200 0.204000
-14.899000 0.427100 0.022143 0.202400 0.202300
-14.889000 0.423600 0.021900 0.201000 0.200700
-14.879000 0.420400 0.021637 0.199300 0.199200
-14.869000 0.417200 0.021395 0.197900 0.198000
-14.859000 0.413700 0.021132 0.196200 0.196200
-14.849000 0.410500 0.020889 0.194700 0.194900
-14.839000 0.407000 0.020627 0.193200 0.193100
-14.829000 0.403800 0.020384 0.191600 0.191600
-14.819000 0.400100 0.020152 0.190300 0.190000
-14.809000 0.383400 0.019236 0.182000 0.181900
-14.799000 0.382100 0.019114 0.181400 0.181400
-14.789000 0.380700 0.018962 0.181100 0.181000
-14.779000 0.379700 0.018840 0.180400 0.180200
-14.769000 0.378100 0.018718 0.179600 0.179700
-14.759000 0.377000 0.018596 0.179300 0.179400
-14.749000 0.375700 0.018474 0.178800 0.178600
-14.739000 0.374400 0.018333 0.178000 0.178000
-14.729000 0.373100 0.018211 0.177500 0.177700
-14.719000 0.372000 0.018059 0.177000 0.176900
-14.709000 0.370400 0.017937 0.176300 0.176300
-14.699000 0.368800 0.017815 0.175500 0.175500
-14.689000 0.367200 0.017673 0.174700 0.174700
-14.679000 0.365600 0.017501 0.173700 0.173800
-14.669000 0.363500 0.017379 0.173300 0.173200
-14.659000 0.361900 0.017238 0.172500 0.172400
-14.649000 0.360000 0.017066 0.171520 0.171600
-14.639000 0.357900 0.016944 0.170750 0.170700
-14.629000 0.356300 0.016802 0.169780 0.169900
-14.619000 0.354700 0.016631 0.168800 0.168900
-14.609000 0.352600 0.016509 0.168030 0.168100
-14.599000 0.350700 0.016368 0.167260 0.167200
-14.589000 0.348800 0.016196 0.166290 0.166600
-14.579000 0.347200 0.016074 0.165610 0.165600
-14.569000 0.345100 0.015933 0.164840 0.164700
-14.559000 0.343200 0.015792 0.163670 0.163900
-14.549000 0.341300 0.015670 0.162900 0.162900
-14.539000 0.339500 0.015499 0.161930 0.161900
-14.529000 0.337600 0.015378 0.161150 0.161000
-14.519000 0.334400 0.015166 0.159540 0.159600
-14.509000 0.329500 0.014904 0.157190 0.157300
-14.499000 0.324700 0.014622 0.154840 0.154800
-14.489000 0.319600 0.014390 0.152700 0.152800
-14.479000 0.315100 0.014109 0.150350 0.150200
-14.469000 0.310200 0.013847 0.148100 0.148100
-14.459000 0.305100 0.013566 0.145950 0.145800
-14.449000 0.300800 0.013354 0.143610 0.143600
-14.439000 0.299200 0.013233 0.143060 0.143200
-14.429000 0.298400 0.013162 0.142380 0.142500
-14.419000 0.296800 0.013060 0.142070 0.142100
-14.409000 0.295800 0.012970 0.141550 0.141500
-14.399000 0.294400 0.012868 0.140840 0.140700
-14.389000 0.293400 0.012797 0.140320 0.140100
-14.379000 0.292000 0.012677 0.139610 0.139600
-14.369000 0.290700 0.012605 0.139090 0.139200
-14.359000 0.289400 0.012504 0.138380 0.138400
-14.349000 0.288300 0.012413 0.137870 0.137800
-14.339000 0.286700 0.012313 0.137350 0.137400
-14.329000 0.285900 0.012242 0.136640 0.136700
-14.319000 0.284300 0.012121 0.135930 0.136100
-14.309000 0.283200 0.012050 0.135810 0.135700
-14.299000 0.281900 0.011949 0.135100 0.134900
-14.289000 0.280600 0.011858 0.134390 0.134300
-14.279000 0.279200 0.011757 0.133880 0.133900
-14.269000 0.278200 0.011686 0.133360 0.133300
-14.259000 0.276000 0.011545 0.132200 0.132400
-14.249000 0.273900 0.011425 0.131240 0.131400
-14.239000 0.271500 0.011334 0.130290 0.130300
-14.229000 0.269600 0.011193 0.129330 0.129300
-14.219000 0.267200 0.011072 0.128170 0.128100
-14.209000 0.265300 0.010951 0.127010 0.127200
-14.199000 0.263200 0.010810 0.126240 0.126200
-14.189000 0.261300 0.010689 0.125090 0.125200
-14.179000 0.258900 0.010599 0.124130 0.124100
-14.169000 0.256800 0.010458 0.122970 0.123100
-14.159000 0.254600 0.010337 0.122210 0.122000
-14.149000 0.676000 0.026556 0.325200 0.325100
-14.139000 0.712700 0.027842 0.342900 0.342700
-14.129000 0.749700 0.029128 0.360300 0.360400
-14.119000 0.786400 0.030378 0.378000 0.378100
-14.109000 0.823700 0.031658 0.395800 0.395600
-14.099000 0.845600 0.032355 0.407700 0.407600
-14.089000 0.883800 0.033666 0.425100 0.425100
-14.079000 0.885000 0.033598 0.425700 0.425700
-14.069000 0.868700 0.032816 0.416700 0.416700
-14.059000 0.849800 0.032044 0.409900 0.409800
-14.049000 0.833200 0.031295 0.400700 0.400800
-14.039000 0.788600 0.029529 0.379300 0.379200
-14.029000 0.799400 0.029803 0.384200 0.384300
-14.019000 0.808200 0.030074 0.389600 0.389500
-14.009000 0.819000 0.030312 0.394400 0.394500
-13.999000 0.829800 0.030603 0.399600 0.399400
-13.989000 0.840600 0.030871 0.405900 0.405700
-13.979000 0.851400 0.031139 0.410100 0.410100
-13.969000 0.862500 0.031397 0.414300 0.414500
-13.959000 0.873600 0.031662 0.420700 0.420800
-13.949000 0.882400 0.031947 0.425100 0.425200
-13.939000 0.893500 0.032182 0.431500 0.431600
-13.929000 0.904900 0.032467 0.436200 0.436000
-13.919000 0.916000 0.032699 0.442500 0.442700
-13.909000 0.928000 0.033050 0.447400 0.447500
-13.899000 0.893300 0.031700 0.430800 0.430600
-13.889000 0.893900 0.031596 0.430800 0.430900
-13.879000 0.893900 0.031472 0.431100 0.431000
-13.869000 0.894500 0.031368 0.431300 0.431400
-13.859000 0.895100 0.031297 0.431500 0.431500
-13.849000 0.895100 0.031173 0.431800 0.431800
-13.839000 0.898300 0.031105 0.434400 0.434400
-13.829000 0.902700 0.031196 0.435500 0.435400
-13.819000 0.909100 0.031257 0.438600 0.438600
-13.809000 0.912600 0.031251 0.441300 0.441300
-13.799000 0.915500 0.031222 0.442000 0.441900
-13.789000 0.918700 0.031210 0.444500 0.444200
-13.779000 0.921600 0.031231 0.444800 0.444900
-13.769000 0.926800 0.031202 0.447300 0.447200
-13.759000 0.930000 0.031190 0.449900 0.449900
-13.749000 0.933200 0.031181 0.450600 0.450500
-13.739000 0.936400 0.031169 0.453000 0.453000
-13.729000 0.939600 0.031187 0.453400 0.453500
-13.719000 0.942800 0.031155 0.456200 0.455900
-13.709000 0.962600 0.031658 0.465900 0.465800
-13.699000 0.969300 0.031745 0.469100 0.469100
-13.689000 0.976300 0.031829 0.472600 0.472600
-13.679000 0.984500 0.031983 0.476400 0.476500
-13.669000 0.994400 0.032157 0.480500 0.480600
-13.659000 0.999100 0.032215 0.483900 0.483800
-13.649000 1.003200 0.032234 0.484900 0.484700
-13.639000 1.009900 0.032269 0.488200 0.488100
-13.629000 1.014600 0.032354 0.491300 0.491400
-13.619000 1.021900 0.032439 0.494800 0.494800
-13.609000 1.028600 0.032504 0.498400 0.498200
-13.599000 1.035600 0.032589 0.501800 0.501800
-13.589000 1.042600 0.032674 0.505100 0.505200
-13.579000 1.049300 0.032766 0.508600 0.508600
-13.569000 1.056300 0.032848 0.512000 0.511900
-13.559000 1.061000 0.032910 0.515200 0.515300
-13.549000 1.067700 0.032959 0.518400 0.518500
-13.539000 1.074400 0.033018 0.521700 0.521700
-13.529000 1.081700 0.033140 0.525300 0.525400
-13.519000 1.095400 0.033384 0.529900 0.530100
-13.509000 1.109100 0.033635 0.536600 0.536800
-13.499000 1.120800 0.033876 0.543500 0.543500
-13.489000 1.133600 0.034127 0.550200 0.550200
