# E (eV)   ldos(E)   pdos(E)   
-17.719000 0.000000 0.000000
-17.709000 0.969000 0.969000
-17.699000 1.922000 1.922000
-17.689000 1.057000 1.057000
-17.679000 1.127000 1.127000
-17.669000 1.200000 1.200000
-17.659000 1.270000 1.270000
-17.649000 1.186000 1.186000
-17.639000 1.087000 1.087000
-17.629000 1.087000 1.087000
-17.619000 1.105000 1.105000
-17.609000 1.123000 1.123000
-17.599000 1.141000 1.141000
-17.589000 1.164000 1.164000
-17.579000 1.182000 1.182000
-17.569000 1.088000 1.088000
-17.559000 1.075000 1.075000
-17.549000 1.067000 1.067000
-17.539000 1.054000 1.054000
-17.529000 1.059000 1.059000
-17.519000 1.064000 1.064000
-17.509000 1.071000 1.071000
-17.499000 1.079000 1.079000
-17.489000 1.084000 1.084000
-17.479000 1.091000 1.091000
-17.469000 1.065000 1.065000
-17.459000 1.031000 1.031000
-17.449000 1.021000 1.021000
-17.439000 1.018000 1.018000
-17.429000 1.015000 1.015000
-17.419000 1.015000 1.015000
-17.409000 1.012000 1.012000
-17.399000 1.009000 1.009000
-17.389000 1.009000 1.009000
-17.379000 1.014000 1.014000
-17.369000 1.019000 1.019000
-17.359000 1.019000 1.019000
-17.349000 1.021000 1.021000
-17.339000 1.023000 1.023000
-17.329000 0.992000 0.992000
-17.319000 0.984000 0.984000
-17.309000 0.976000 0.976000
-17.299000 0.971000 0.971000
-17.289000 0.971000 0.971000
-17.279000 0.968000 0.968000
-17.269000 0.967000 0.967000
-17.259000 0.967000 0.967000
-17.249000 0.967000 0.967000
-17.239000 0.967000 0.967000
-17.229000 0.969000 0.969000
-17.219000 0.969000 0.969000
-17.209000 0.971000 0.971000
-17.199000 0.971000 0.971000
-17.189000 0.973000 0.973000
-17.179000 0.968000 0.968000
-17.169000 0.955000 0.955000
-17.159000 0.949000 0.949000
-17.149000 0.949000 0.949000
-17.139000 0.949000 0.949000
-17.129000 0.946000 0.946000
-17.119000 0.943000 0.943000
-17.109000 0.943000 0.943000
-17.099000 0.945000 0.945000
-17.089000 0.947000 0.947000
-17.079000 0.950000 0.950000
-17.069000 0.952000 0.952000
-17.059000 0.957000 0.957000
-17.049000 0.957000 0.957000
-17.039000 0.959000 0.959000
-17.029000 0.959000 0.959000
-17.019000 0.961000 0.961000
-17.009000 0.966000 0.966000
-16.999000 0.963000 0.963000
-16.989000 0.963000 0.963000
-16.979000 0.965000 0.965000
-16.969000 0.967000 0.967000
-16.959000 0.972000 0.972000
-16.949000 0.977000 0.977000
-16.939000 0.984000 0.984000
-16.929000 0.989000 0.989000
-16.919000 0.994000 0.994000
-16.909000 1.006000 1.006000
-16.899000 1.016000 1.016000
-16.889000 1.028000 1.028000
-16.879000 1.043000 1.043000
-16.869000 1.058000 1.058000
-16.859000 1.070000 1.070000
-16.849000 1.080000 1.080000
-16.839000 1.092000 1.092000
-16.829000 1.125000 1.125000
-16.819000 1.160000 1.160000
-16.809000 1.190000 1.190000
-16.799000 1.217000 1.217000
-16.789000 1.265000 1.265000
-16.779000 1.313000 1.313000
-16.769000 1.424000 1.424000
-16.759000 1.547000 1.547000
-16.749000 2.598000 2.598000
-16.739000 1.265000 1.265000
-16.729000 1.179000 1.179000
-16.719000 1.090000 1.090000
-16.709000 1.006000 1.006000
-16.699000 0.918500 0.918500
-16.689000 0.832500 0.832500
-16.679000 0.748800 0.748800
-16.669000 0.757600 0.757600
-16.659000 0.771700 0.771700
-16.649000 0.786100 0.786100
-16.639000 0.798800 0.798800
-16.629000 0.813500 0.813500
-16.619000 0.540200 0.540200
-16.609000 0.555500 0.555500
-16.599000 0.554300 0.554300
-16.589000 0.529100 0.529100
-16.579000 0.503400 0.503400
-16.569000 0.478600 0.478600
-16.559000 0.453700 0.453700
-16.549000 0.428600 0.428600
-16.539000 0.404000 0.404000
-16.529000 0.379700 0.379700
-16.519000 0.355300 0.355300
-16.509000 0.331000 0.331000
-16.499000 0.306700 0.306700
-16.489000 0.282900 0.282900
-16.479000 0.262700 0.262700
-16.469000 0.263600 0.263600
-16.459000 0.264300 0.264300
-16.449000 0.264800 0.264800
-16.439000 0.265500 0.265500
-16.429000 0.266200 0.266200
-16.419000 0.267200 0.267200
-16.409000 0.267900 0.267900
-16.399000 0.000000 0.000000
-16.389000 0.000000 0.000000
-16.379000 0.000000 0.000000
-16.369000 0.000000 0.000000
-16.359000 0.000000 0.000000
-16.349000 0.000000 0.000000
-16.339000 0.000000 0.000000
-16.329000 0.000000 0.000000
-16.319000 0.000000 0.000000
-16.309000 0.000000 0.000000
-16.299000 0.000000 0.000000
-16.289000 0.000000 0.000000
-16.279000 0.000000 0.000000
-16.269000 0.000000 0.000000
-16.259000 0.000000 0.000000
-16.249000 0.000000 0.000000
-16.239000 0.000000 0.000000
-16.229000 0.000000 0.000000
-16.219000 0.000000 0.000000
-16.209000 0.000000 0.000000
-16.199000 0.000000 0.000000
-16.189000 0.000000 0.000000
-16.179000 0.000000 0.000000
-16.169000 0.000000 0.000000
-16.159000 0.000000 0.000000
-16.149000 0.276800 0.276800
-16.139000 0.269400 0.269400
-16.129000 0.262200 0.262200
-16.119000 0.254700 0.254700
-16.109000 0.247500 0.247500
-16.099000 0.240000 0.240000
-16.089000 0.232400 0.232400
-16.079000 0.228100 0.228100
-16.069000 0.253100 0.253100
-16.059000 0.277800 0.277800
-16.049000 0.302500 0.302500
-16.039000 0.327000 0.327000
-16.029000 0.351500 0.351500
-16.019000 0.376100 0.376100
-16.009000 0.400600 0.400600
-15.999000 0.424700 0.424700
-15.989000 0.449000 0.449000
-15.979000 0.473100 0.473100
-15.969000 0.497200 0.497200
-15.959000 0.521100 0.521100
-15.949000 1.594000 1.594000
-15.939000 0.787100 0.787100
-15.929000 0.620200 0.620200
-15.919000 0.717300 0.717300
-15.909000 0.816400 0.816400
-15.899000 1.160000 1.160000
-15.889000 1.614000 1.614000
-15.879000 2.062000 2.062000
-15.869000 1.057000 1.057000
-15.859000 1.005000 1.005000
-15.849000 0.959000 0.959000
-15.839000 0.909400 0.909400
-15.829000 0.863900 0.863900
-15.819000 0.816400 0.816400
-15.809000 0.769200 0.769200
-15.799000 0.738200 0.738200
-15.789000 0.709900 0.709900
-15.779000 0.683900 0.683900
-15.769000 0.665000 0.665000
-15.759000 0.647900 0.647900
-15.749000 0.631400 0.631400
-15.739000 0.614600 0.614600
-15.729000 0.599800 0.599800
-15.719000 0.580100 0.580100
-15.709000 0.562400 0.562400
-15.699000 0.545300 0.545300
-15.689000 0.537100 0.537100
-15.679000 0.528000 0.528000
-15.669000 0.519200 0.519200
-15.659000 0.510900 0.510900
-15.649000 0.501800 0.501800
-15.639000 0.495600 0.495600
-15.629000 0.489600 0.489600
-15.619000 0.483400 0.483400
-15.609000 0.477400 0.477400
-15.599000 0.471200 0.471200
-15.589000 0.465200 0.465200
-15.579000 0.459300 0.459300
-15.569000 0.453300 0.453300
-15.559000 0.447700 0.447700
-15.549000 0.441700 0.441700
-15.539000 0.435800 0.435800
-15.529000 0.429900 0.429900
-15.519000 0.423900 0.423900
-15.509000 0.417800 0.417800
-15.499000 0.411400 0.411400
-15.489000 0.405200 0.405200
-15.479000 0.399600 0.399600
-15.469000 0.393500 0.393500
-15.459000 0.387600 0.387600
-15.449000 0.381700 0.381700
-15.439000 0.365400 0.365400
-15.429000 0.362000 0.362000
-15.419000 0.359100 0.359100
-15.409000 0.356300 0.356300
-15.399000 0.352900 0.352900
-15.389000 0.350000 0.350000
-15.379000 0.346900 0.346900
-15.369000 0.344000 0.344000
-15.359000 0.340900 0.340900
-15.349000 0.337800 0.337800
-15.339000 0.334900 0.334900
-15.329000 0.332100 0.332100
-15.319000 0.329000 0.329000
-15.309000 0.325900 0.325900
-15.299000 0.322800 0.322800
-15.289000 0.319400 0.319400
-15.279000 0.316600 0.316600
-15.269000 0.313500 0.313500
-15.259000 0.310200 0.310200
-15.249000 0.307100 0.307100
-15.239000 0.303700 0.303700
-15.229000 0.300900 0.300900
-15.219000 0.297800 0.297800
-15.209000 0.295000 0.295000
-15.199000 0.291900 0.291900
-15.189000 0.288600 0.288600
-15.179000 0.285000 0.285000
-15.169000 0.280000 0.280000
-15.159000 0.274900 0.274900
-15.149000 0.269900 0.269900
-15.139000 0.264600 0.264600
-15.129000 0.259800 0.259800
-15.119000 0.257500 0.257500
-15.109000 0.255400 0.255400
-15.099000 0.253600 0.253600
-15.089000 0.251800 0.251800
-15.079000 0.249700 0.249700
-15.069000 0.247900 0.247900
-15.059000 0.246100 0.246100
-15.049000 0.244300 0.244300
-15.039000 0.241900 0.241900
-15.029000 0.240100 0.240100
-15.019000 0.238300 0.238300
-15.009000 0.236500 0.236500
-14.999000 0.234700 0.234700
-14.989000 0.232600 0.232600
-14.979000 0.230800 0.230800
-14.969000 0.229000 0.229000
-14.959000 0.227200 0.227200
-14.949000 0.225400 0.225400
-14.939000 0.223900 0.223900
-14.929000 0.221300 0.221300
-14.919000 0.219300 0.219300
-14.909000 0.216700 0.216700
-14.899000 0.214200 0.214200
-14.889000 0.211900 0.211900
-14.879000 0.209400 0.209400
-14.869000 0.206800 0.206800
-14.859000 0.204800 0.204800
-14.849000 0.202000 0.202000
-14.839000 0.200000 0.200000
-14.829000 0.197400 0.197400
-14.819000 0.195200 0.195200
-14.809000 0.186500 0.186500
-14.799000 0.184900 0.184900
-14.789000 0.183900 0.183900
-14.779000 0.182300 0.182300
-14.769000 0.181300 0.181300
-14.759000 0.180300 0.180300
-14.749000 0.178700 0.178700
-14.739000 0.177700 0.177700
-14.729000 0.176400 0.176400
-14.719000 0.175100 0.175100
-14.709000 0.173800 0.173800
-14.699000 0.172800 0.172800
-14.689000 0.171000 0.171000
-14.679000 0.169400 0.169400
-14.669000 0.168200 0.168200
-14.659000 0.166600 0.166600
-14.649000 0.165400 0.165400
-14.639000 0.163800 0.163800
-14.629000 0.162300 0.162300
-14.619000 0.161300 0.161300
-14.609000 0.159500 0.159500
-14.599000 0.158500 0.158500
-14.589000 0.156700 0.156700
-14.579000 0.155700 0.155700
-14.569000 0.154100 0.154100
-14.559000 0.152900 0.152900
-14.549000 0.151300 0.151300
-14.539000 0.150100 0.150100
-14.529000 0.148800 0.148800
-14.519000 0.146800 0.146800
-14.509000 0.144300 0.144300
-14.499000 0.141600 0.141600
-14.489000 0.138800 0.138800
-14.479000 0.136600 0.136600
-14.469000 0.133600 0.133600
-14.459000 0.131400 0.131400
-14.449000 0.128900 0.128900
-14.439000 0.127800 0.127800
-14.429000 0.126800 0.126800
-14.419000 0.126000 0.126000
-14.409000 0.125000 0.125000
-14.399000 0.124000 0.124000
-14.389000 0.123200 0.123200
-14.379000 0.122200 0.122200
-14.369000 0.121400 0.121400
-14.359000 0.120400 0.120400
-14.349000 0.119600 0.119600
-14.339000 0.118600 0.118600
-14.329000 0.117600 0.117600
-14.319000 0.117100 0.117100
-14.309000 0.116040 0.116040
-14.299000 0.115240 0.115240
-14.289000 0.114240 0.114240
-14.279000 0.113440 0.113440
-14.269000 0.112470 0.112470
-14.259000 0.111260 0.111260
-14.249000 0.109910 0.109910
-14.239000 0.108790 0.108790
-14.229000 0.107610 0.107610
-14.219000 0.106290 0.106290
-14.209000 0.105170 0.105170
-14.199000 0.103880 0.103880
-14.189000 0.102730 0.102730
-14.179000 0.101610 0.101610
-14.169000 0.100290 0.100290
-14.159000 0.099230 0.099230
-14.149000 0.391500 0.391500
-14.139000 0.415300 0.415300
-14.129000 0.438900 0.438900
-14.119000 0.462400 0.462400
-14.109000 0.485600 0.485600
-14.099000 0.503200 0.503200
-14.089000 0.526600 0.526600
-14.079000 0.525200 0.525200
-14.069000 0.511800 0.511800
-14.059000 0.498100 0.498100
-14.049000 0.484600 0.484600
-14.039000 0.453300 0.453300
-14.029000 0.458400 0.458400
-14.019000 0.463000 0.463000
-14.009000 0.468100 0.468100
-13.999000 0.473000 0.473000
-13.989000 0.478100 0.478100
-13.979000 0.482600 0.482600
-13.969000 0.487200 0.487200
-13.959000 0.492000 0.492000
-13.949000 0.497100 0.497100
-13.939000 0.501400 0.501400
-13.929000 0.506200 0.506200
-13.919000 0.510700 0.510700
-13.909000 0.516700 0.516700
-13.899000 0.493000 0.493000
-13.889000 0.491300 0.491300
-13.879000 0.489500 0.489500
-13.869000 0.487800 0.487800
-13.859000 0.486100 0.486100
-13.849000 0.484100 0.484100
-13.839000 0.483600 0.483600
-13.829000 0.484600 0.484600
-13.819000 0.485600 0.485600
-13.809000 0.486100 0.486100
-13.799000 0.486400 0.486400
-13.789000 0.486900 0.486900
-13.779000 0.487200 0.487200
-13.769000 0.487700 0.487700
-13.759000 0.487700 0.487700
-13.749000 0.488200 0.488200
-13.739000 0.488700 0.488700
-13.729000 0.488700 0.488700
-13.719000 0.489200 0.489200
-13.709000 0.498100 0.498100
-13.699000 0.500400 0.500400
-13.689000 0.502100 0.502100
-13.679000 0.504600 0.504600
-13.669000 0.507300 0.507300
-13.659000 0.508000 0.508000
-13.649000 0.508100 0.508100
-13.639000 0.508200 0.508200
-13.629000 0.509500 0.509500
-13.619000 0.510800 0.510800
-13.609000 0.512100 0.512100
-13.599000 0.513100 0.513100
-13.589000 0.514400 0.514400
-13.579000 0.515700 0.515700
-13.569000 0.516700 0.516700
-13.559000 0.517200 0.517200
-13.549000 0.518200 0.518200
-13.539000 0.518900 0.518900
-13.529000 0.520500 0.520500
-13.519000 0.524800 0.524800
-13.509000 0.528300 0.528300
-13.499000 0.532000 0.532000
-13.489000 0.536000 0.536000
-13.479000 0.539700 0.539700
-13.469000 0.543200 0.543200
-13.459000 0.546900 0.546900
-13.449000 0.549100 0.549100
-13.439000 0.550500 0.550500
-13.429000 0.552100 0.552100
-13.419000 0.553500 0.553500
-13.409000 0.555100 0.555100
-13.399000 0.556500 0.556500
-13.389000 0.612600 0.612600
-13.379000 0.645000 0.645000
-13.369000 0.673000 0.673000
-13.359000 0.701400 0.701400
-13.349000 0.722000 0.722000
-13.339000 0.736600 0.736600
-13.329000 0.751000 0.751000
-13.319000 0.768600 0.768600
-13.309000 0.783000 0.783000
-13.299000 0.812400 0.812400
-13.289000 0.829800 0.829800
-13.279000 0.841000 0.841000
-13.269000 0.855200 0.855200
-13.259000 0.866400 0.866400
-13.249000 0.862500 0.862500
-13.239000 0.738680 0.738680
-13.229000 0.680940 0.680940
-13.219000 0.646320 0.646320
-13.209000 0.611700 0.611700
-13.199000 0.578000 0.578000
-13.189000 0.553600 0.553600
-13.179000 0.533400 0.533400
-13.169000 0.513780 0.513780
-13.159000 0.494460 0.494460
-13.149000 0.474840 0.474840
-13.139000 0.455520 0.455520
-13.129000 0.436780 0.436780
-13.119000 0.427060 0.427060
-13.109000 0.420660 0.420660
-13.099000 0.413920 0.413920
-13.089000 0.407480 0.407480
-13.079000 0.401020 0.401020
-13.069000 0.394260 0.394260
-13.059000 0.386860 0.386860
-13.049000 0.380060 0.380060
-13.039000 0.367240 0.367240
-13.029000 0.351720 0.351720
-13.019000 0.337060 0.337060
-13.009000 0.321802 0.321802
-12.999000 0.307228 0.307228
-12.989000 0.293654 0.293654
-12.979000 0.280382 0.280382
-12.969000 0.267110 0.267110
-12.959000 0.253840 0.253840
-12.949000 0.334614 0.334614
-12.939000 0.318374 0.318374
-12.929000 0.302434 0.302434
-12.919000 0.286796 0.286796
-12.909000 0.271456 0.271456
-12.899000 0.256118 0.256118
-12.889000 0.241380 0.241380
-12.879000 0.226643 0.226643
-12.869000 0.212206 0.212206
-12.859000 0.198070 0.198070
-12.849000 0.285072 0.285072
-12.839000 0.265564 0.265564
-12.829000 0.242752 0.242752
-12.819000 0.220240 0.220240
-12.809000 0.198327 0.198327
-12.799000 0.177014 0.177014
-12.789000 0.156000 0.156000
-12.779000 0.217200 0.217200
-12.769000 0.083100 0.083100
-12.759000 0.000282 0.000282
-12.749000 0.001062 0.001062
-12.739000 0.001841 0.001841
-12.729000 0.002615 0.002615
-12.719000 0.003396 0.003396
-12.709000 0.004172 0.004172
-12.699000 0.004948 0.004948
-12.689000 0.005726 0.005726
-12.679000 0.006504 0.006504
-12.669000 0.007293 0.007293
-12.659000 0.008064 0.008064
-12.649000 0.008838 0.008838
-12.639000 0.009602 0.009602
-12.629000 0.010384 0.010384
-12.619000 0.011156 0.011156
-12.609000 0.011940 0.011940
-12.599000 0.012720 0.012720
-12.589000 0.013490 0.013490
-12.579000 0.014250 0.014250
-12.569000 0.015030 0.015030
-12.559000 0.015830 0.015830
-12.549000 0.016570 0.016570
-12.539000 0.017350 0.017350
-12.529000 0.018150 0.018150
-12.519000 0.018920 0.018920
-12.509000 0.019700 0.019700
-12.499000 0.020450 0.020450
-12.489000 0.021220 0.021220
-12.479000 0.022030 0.022030
-12.469000 0.022780 0.022780
-12.459000 0.023550 0.023550
-12.449000 0.024310 0.024310
-12.439000 0.025060 0.025060
-12.429000 0.025830 0.025830
-12.419000 0.030620 0.030620
-12.409000 0.031280 0.031280
-12.399000 0.031910 0.031910
-12.389000 0.032540 0.032540
-12.379000 0.033170 0.033170
-12.369000 0.033770 0.033770
-12.359000 0.034400 0.034400
-12.349000 0.035030 0.035030
-12.339000 0.035680 0.035680
-12.329000 0.036340 0.036340
-12.319000 0.036970 0.036970
-12.309000 0.037620 0.037620
-12.299000 0.038250 0.038250
-12.289000 0.038880 0.038880
-12.279000 0.039530 0.039530
-12.269000 0.040190 0.040190
-12.259000 0.040840 0.040840
-12.249000 0.041490 0.041490
-12.239000 0.042150 0.042150
-12.229000 0.042800 0.042800
-12.219000 0.043480 0.043480
-12.209000 0.044130 0.044130
-12.199000 0.044810 0.044810
-12.189000 0.087760 0.087760
-12.179000 0.150000 0.150000
-12.169000 0.195600 0.195600
-12.159000 0.216900 0.216900
-12.149000 0.238400 0.238400
-12.139000 0.259700 0.259700
-12.129000 0.280700 0.280700
-12.119000 0.303700 0.303700
-12.109000 0.326700 0.326700
-12.099000 0.344200 0.344200
-12.089000 0.360400 0.360400
-12.079000 0.376500 0.376500
-12.069000 0.391900 0.391900
-12.059000 0.408100 0.408100
-12.049000 0.423700 0.423700
-12.039000 0.439700 0.439700
-12.029000 0.455300 0.455300
-12.019000 0.470700 0.470700
-12.009000 0.486400 0.486400
-11.999000 0.502100 0.502100
-11.989000 0.470500 0.470500
-11.979000 0.470200 0.470200
-11.969000 0.469600 0.469600
-11.959000 0.469300 0.469300
-11.949000 0.475300 0.475300
-11.939000 0.482100 0.482100
-11.929000 0.489200 0.489200
-11.919000 0.496000 0.496000
-11.909000 0.502800 0.502800
-11.899000 0.513700 0.513700
-11.889000 0.564700 0.564700
-11.879000 0.613400 0.613400
-11.869000 0.642700 0.642700
-11.859000 0.641500 0.641500
-11.849000 0.640000 0.640000
-11.839000 0.638100 0.638100
-11.829000 0.625600 0.625600
-11.819000 0.604500 0.604500
-11.809000 0.584000 0.584000
-11.799000 0.563100 0.563100
-11.789000 0.542400 0.542400
-11.779000 0.512500 0.512500
-11.769000 0.482300 0.482300
-11.759000 0.452500 0.452500
-11.749000 0.422700 0.422700
-11.739000 0.393200 0.393200
-11.729000 0.364500 0.364500
-11.719000 0.360800 0.360800
-11.709000 0.357500 0.357500
-11.699000 0.353800 0.353800
-11.689000 0.350700 0.350700
-11.679000 0.347300 0.347300
-11.669000 0.343400 0.343400
-11.659000 0.340300 0.340300
-11.649000 0.336900 0.336900
-11.639000 0.333500 0.333500
-11.629000 0.329900 0.329900
-11.619000 0.326500 0.326500
-11.609000 0.323100 0.323100
-11.599000 0.319400 0.319400
-11.589000 0.316300 0.316300
-11.579000 0.309300 0.309300
-11.569000 0.301500 0.301500
-11.559000 0.296200 0.296200
-11.549000 0.291900 0.291900
-11.539000 0.289100 0.289100
-11.529000 0.286400 0.286400
-11.519000 0.283900 0.283900
-11.509000 0.281800 0.281800
-11.499000 0.279900 0.279900
-11.489000 0.277800 0.277800
-11.479000 0.276200 0.276200
-11.469000 0.274100 0.274100
-11.459000 0.272300 0.272300
-11.449000 0.271600 0.271600
-11.439000 0.271200 0.271200
-11.429000 0.271100 0.271100
-11.419000 0.271300 0.271300
-11.409000 0.225100 0.225100
-11.399000 0.222600 0.222600
-11.389000 0.220200 0.220200
-11.379000 0.217700 0.217700
-11.369000 0.215300 0.215300
-11.359000 0.212900 0.212900
-11.349000 0.210700 0.210700
-11.339000 0.208000 0.208000
-11.329000 0.205600 0.205600
-11.319000 0.203100 0.203100
-11.309000 0.200700 0.200700
-11.299000 0.198800 0.198800
-11.289000 0.196100 0.196100
-11.279000 0.193700 0.193700
-11.269000 0.191200 0.191200
-11.259000 0.188800 0.188800
-11.249000 0.186700 0.186700
-11.239000 0.184200 0.184200
-11.229000 0.181800 0.181800
-11.219000 0.179400 0.179400
-11.209000 0.177200 0.177200
-11.199000 0.174800 0.174800
-11.189000 0.172400 0.172400
-11.179000 0.170500 0.170500
-11.169000 0.167800 0.167800
-11.159000 0.165400 0.165400
-11.149000 0.163500 0.163500
-11.139000 0.161100 0.161100
-11.129000 0.158700 0.158700
-11.119000 0.156500 0.156500
-11.109000 0.154100 0.154100
-11.099000 0.151700 0.151700
-11.089000 0.155100 0.155100
-11.079000 0.170100 0.170100
-11.069000 0.185600 0.185600
-11.059000 0.202200 0.202200
-11.049000 0.220300 0.220300
-11.039000 0.238100 0.238100
-11.029000 0.256300 0.256300
-11.019000 0.130400 0.130400
-11.009000 0.128700 0.128700
-10.999000 0.127300 0.127300
-10.989000 0.125400 0.125400
-10.979000 0.124000 0.124000
-10.969000 0.122100 0.122100
-10.959000 0.120700 0.120700
-10.949000 0.119000 0.119000
-10.939000 0.117400 0.117400
-10.929000 0.116000 0.116000
-10.919000 0.114300 0.114300
-10.909000 0.112700 0.112700
-10.899000 0.111000 0.111000
-10.889000 0.109400 0.109400
-10.879000 0.145500 0.145500
-10.869000 0.201300 0.201300
-10.859000 0.257900 0.257900
-10.849000 0.314700 0.314700
